File: Br-Cl_phases/XRD/000s.dat
10.0116 367
10.1692 416
10.3268 370
10.4843 361
10.6419 375
10.7994 361
10.957 360
11.1146 354
11.2721 333
11.4297 360
11.5873 347
11.7448 356
11.9024 355
12.06 315
12.2175 328
12.3751 338
12.5326 340
12.6902 344
12.8478 339
13.0053 318
13.1629 317
13.3205 301
13.478 344
13.6356 308
13.7932 286
13.9507 282
14.1083 266
14.2658 296
14.4234 299
14.581 421
14.7385 460
14.8961 584
15.0537 644
15.2112 619
15.3688 628
15.5263 530
15.6839 367
15.8415 278
15.999 283
16.1566 239
16.3142 263
16.4717 275
16.6293 285
16.7869 252
16.9444 276
17.102 231
17.2595 292
17.4171 300
17.5747 264
17.7322 260
17.8898 271
18.0474 264
18.2049 249
18.3625 282
18.5201 249
18.6776 308
18.8352 267
18.9927 279
19.1503 291
19.3079 309
19.4654 312
19.623 281
19.7806 306
19.9381 302
20.0957 323
20.2533 292
20.4108 308
20.5684 332
20.7259 410
20.8835 539
21.0411 649
21.1986 750
21.3562 731
21.5138 766
21.6713 799
21.8289 753
21.9864 678
22.144 612
22.3016 384
22.4591 355
22.6167 292
22.7743 245
22.9318 297
23.0894 275
23.247 292
23.4045 257
23.5621 280
23.7196 272
23.8772 331
24.0348 296
24.1923 281
24.3499 272
24.5075 292
24.665 289
24.8226 277
24.9802 270
25.1377 267
25.2953 267
25.4528 247
25.6104 272
25.768 249
25.9255 258
26.0831 254
26.2407 217
26.3982 231
26.5558 204
26.7133 228
26.8709 231
27.0285 195
27.186 206
27.3436 182
27.5012 189
27.6587 199
27.8163 198
27.9739 187
28.1314 206
28.289 212
28.4465 229
28.6041 203
28.7617 207
28.9192 200
29.0768 195
29.2344 222
29.3919 248
29.5495 314
29.7071 377
29.8646 402
30.0222 467
30.1797 577
30.3373 580
30.4949 574
30.6524 592
30.81 599
30.9676 612
31.1251 562
31.2827 505
31.4403 539
31.5978 321
31.7554 201
31.9129 185
32.0705 160
32.2281 153
32.3856 142
32.5432 140
32.7008 146
32.8583 147
33.0159 141
33.1734 175
33.331 188
33.4886 200
33.6461 212
33.8037 210
33.9613 221
34.1188 275
34.2764 249
34.434 245
34.5915 230
34.7491 248
34.9066 223
35.0642 214
35.2218 204
35.3793 176
35.5369 170
35.6945 140
35.852 120
36.0096 118
36.1672 118
36.3247 179
36.4823 171
36.6398 192
36.7974 191
36.955 251
37.1125 249
37.2701 251
37.4277 270
37.5852 287
37.7428 274
37.9004 286
38.0579 303
38.2155 310
38.373 284
38.5306 256
38.6882 254
38.8457 183
39.0033 164
39.1609 120
39.3184 115
39.476 118
39.6335 106
39.7911 110
39.9487 115
40.1062 126
40.2638 101
40.4214 86
40.5789 87
40.7365 88
40.8941 84
41.0516 81
41.2092 91
41.3667 105
41.5243 107
41.6819 105
41.8394 122
41.997 104
42.1546 106
42.3121 123
42.4697 163
42.6273 120
42.7848 155
42.9424 176
43.0999 182
43.2575 163
43.4151 195
43.5726 235
43.7302 210
43.8878 217
44.0453 226
44.2029 215
44.3604 204
44.518 226
44.6756 234
44.8331 192
44.9907 167
45.1483 184
45.3058 169
45.4634 139
45.621 130
45.7785 120
45.9361 137
46.0936 165
46.2512 165
46.4088 145
46.5663 134
46.7239 121
46.8815 125
47.039 135
47.1966 145
47.3542 125
47.5117 139
47.6693 128
47.8268 132
47.9844 134
48.142 122
48.2995 127
48.4571 114
48.6147 131
48.7722 133
48.9298 132
49.0874 125
49.2449 155
49.4025 150
49.56 128
49.7176 139
49.8752 144
50.0065 122