File: Br-Cl_phases/XRD/008s.dat
10.0116 366
10.1692 359
10.3268 346
10.4843 331
10.6419 386
10.7994 368
10.957 380
11.1146 367
11.2721 377
11.4297 377
11.5873 338
11.7448 337
11.9024 358
12.06 329
12.2175 362
12.3751 385
12.5326 352
12.6902 371
12.8478 355
13.0053 343
13.1629 306
13.3205 271
13.478 308
13.6356 307
13.7932 311
13.9507 282
14.1083 318
14.2658 269
14.4234 343
14.581 318
14.7385 460
14.8961 676
15.0537 748
15.2112 843
15.3688 875
15.5263 831
15.6839 734
15.8415 535
15.999 302
16.1566 276
16.3142 307
16.4717 291
16.6293 275
16.7869 279
16.9444 257
17.102 266
17.2595 252
17.4171 267
17.5747 245
17.7322 289
17.8898 278
18.0474 253
18.2049 276
18.3625 273
18.5201 283
18.6776 322
18.8352 285
18.9927 272
19.1503 326
19.3079 334
19.4654 288
19.623 304
19.7806 323
19.9381 293
20.0957 295
20.2533 310
20.4108 300
20.5684 336
20.7259 351
20.8835 362
21.0411 455
21.1986 563
21.3562 597
21.5138 668
21.6713 598
21.8289 620
21.9864 619
22.144 576
22.3016 512
22.4591 420
22.6167 313
22.7743 277
22.9318 267
23.0894 242
23.247 290
23.4045 282
23.5621 242
23.7196 303
23.8772 306
24.0348 300
24.1923 293
24.3499 286
24.5075 285
24.665 259
24.8226 252
24.9802 254
25.1377 247
25.2953 249
25.4528 259
25.6104 236
25.768 227
25.9255 216
26.0831 225
26.2407 221
26.3982 213
26.5558 186
26.7133 214
26.8709 204
27.0285 194
27.186 200
27.3436 200
27.5012 207
27.6587 204
27.8163 207
27.9739 226
28.1314 218
28.289 207
28.4465 207
28.6041 206
28.7617 184
28.9192 178
29.0768 221
29.2344 209
29.3919 241
29.5495 214
29.7071 279
29.8646 392
30.0222 421
30.1797 519
30.3373 675
30.4949 757
30.6524 777
30.81 807
30.9676 835
31.1251 837
31.2827 808
31.4403 819
31.5978 779
31.7554 623
31.9129 561
32.0705 335
32.2281 189
32.3856 169
32.5432 179
32.7008 151
32.8583 163
33.0159 127
33.1734 166
33.331 152
33.4886 186
33.6461 211
33.8037 193
33.9613 196
34.1188 197
34.2764 224
34.434 228
34.5915 199
34.7491 242
34.9066 240
35.0642 211
35.2218 199
35.3793 201
35.5369 173
35.6945 186
35.852 157
36.0096 140
36.1672 133
36.3247 121
36.4823 163
36.6398 127
36.7974 148
36.955 155
37.1125 227
37.2701 220
37.4277 217
37.5852 244
37.7428 228
37.9004 265
38.0579 253
38.2155 273
38.373 277
38.5306 255
38.6882 260
38.8457 235
39.0033 213
39.1609 221
39.3184 187
39.476 143
39.6335 122
39.7911 113
39.9487 122
40.1062 108
40.2638 83
40.4214 109
40.5789 98
40.7365 123
40.8941 105
41.0516 122
41.2092 112
41.3667 110
41.5243 113
41.6819 87
41.8394 99
41.997 86
42.1546 100
42.3121 114
42.4697 106
42.6273 115
42.7848 126
42.9424 139
43.0999 121
43.2575 144
43.4151 142
43.5726 165
43.7302 164
43.8878 167
44.0453 163
44.2029 180
44.3604 155
44.518 174
44.6756 188
44.8331 164
44.9907 190
45.1483 175
45.3058 171
45.4634 179
45.621 139
45.7785 120
45.9361 129
46.0936 132
46.2512 112
46.4088 131
46.5663 150
46.7239 126
46.8815 121
47.039 143
47.1966 107
47.3542 114
47.5117 123
47.6693 122
47.8268 123
47.9844 112
48.142 130
48.2995 147
48.4571 125
48.6147 117
48.7722 115
48.9298 134
49.0874 139
49.2449 131
49.4025 131
49.56 147
49.7176 129
49.8752 135
50.0065 152