File: Br-Cl_phases/XRD/013s.dat
10.0116 340
10.1692 371
10.3268 404
10.4843 350
10.6419 363
10.7994 368
10.957 346
11.1146 350
11.2721 367
11.4297 379
11.5873 354
11.7448 324
11.9024 321
12.06 329
12.2175 326
12.3751 350
12.5326 326
12.6902 340
12.8478 323
13.0053 329
13.1629 297
13.3205 311
13.478 305
13.6356 319
13.7932 283
13.9507 282
14.1083 287
14.2658 300
14.4234 296
14.581 283
14.7385 296
14.8961 304
15.0537 400
15.2112 515
15.3688 605
15.5263 629
15.6839 685
15.8415 596
15.999 411
16.1566 299
16.3142 281
16.4717 267
16.6293 276
16.7869 270
16.9444 236
17.102 237
17.2595 274
17.4171 294
17.5747 276
17.7322 255
17.8898 277
18.0474 296
18.2049 274
18.3625 273
18.5201 280
18.6776 288
18.8352 316
18.9927 287
19.1503 265
19.3079 289
19.4654 301
19.623 288
19.7806 309
19.9381 274
20.0957 293
20.2533 307
20.4108 312
20.5684 282
20.7259 298
20.8835 298
21.0411 345
21.1986 378
21.3562 572
21.5138 905
21.6713 1039
21.8289 1106
21.9864 1094
22.144 1081
22.3016 1088
22.4591 1000
22.6167 829
22.7743 459
22.9318 329
23.0894 305
23.247 276
23.4045 273
23.5621 235
23.7196 232
23.8772 272
24.0348 260
24.1923 235
24.3499 247
24.5075 230
24.665 231
24.8226 245
24.9802 233
25.1377 221
25.2953 250
25.4528 218
25.6104 239
25.768 246
25.9255 213
26.0831 213
26.2407 207
26.3982 206
26.5558 176
26.7133 190
26.8709 181
27.0285 173
27.186 200
27.3436 193
27.5012 175
27.6587 180
27.8163 175
27.9739 192
28.1314 193
28.289 166
28.4465 162
28.6041 170
28.7617 193
28.9192 177
29.0768 186
29.2344 181
29.3919 166
29.5495 195
29.7071 167
29.8646 170
30.0222 173
30.1797 215
30.3373 230
30.4949 235
30.6524 373
30.81 436
30.9676 477
31.1251 500
31.2827 544
31.4403 580
31.5978 557
31.7554 556
31.9129 555
32.0705 502
32.2281 431
32.3856 277
32.5432 165
32.7008 163
32.8583 132
33.0159 165
33.1734 141
33.331 158
33.4886 130
33.6461 141
33.8037 129
33.9613 138
34.1188 126
34.2764 156
34.434 159
34.5915 162
34.7491 189
34.9066 203
35.0642 199
35.2218 184
35.3793 201
35.5369 210
35.6945 162
35.852 185
36.0096 181
36.1672 151
36.3247 135
36.4823 119
36.6398 124
36.7974 127
36.955 111
37.1125 118
37.2701 118
37.4277 139
37.5852 167
37.7428 193
37.9004 229
38.0579 256
38.2155 290
38.373 295
38.5306 287
38.6882 292
38.8457 330
39.0033 330
39.1609 292
39.3184 259
39.476 280
39.6335 240
39.7911 172
39.9487 134
40.1062 117
40.2638 106
40.4214 103
40.5789 100
40.7365 98
40.8941 110
41.0516 98
41.2092 114
41.3667 101
41.5243 97
41.6819 103
41.8394 93
41.997 112
42.1546 80
42.3121 127
42.4697 100
42.6273 88
42.7848 85
42.9424 95
43.0999 100
43.2575 104
43.4151 115
43.5726 95
43.7302 121
43.8878 173
44.0453 154
44.2029 165
44.3604 166
44.518 184
44.6756 209
44.8331 201
44.9907 207
45.1483 205
45.3058 161
45.4634 199
45.621 189
45.7785 167
45.9361 173
46.0936 148
46.2512 142
46.4088 122
46.5663 116
46.7239 114
46.8815 107
47.039 110
47.1966 107
47.3542 132
47.5117 121
47.6693 94
47.8268 145
47.9844 112
48.142 91
48.2995 122
48.4571 110
48.6147 98
48.7722 130
48.9298 116
49.0874 118
49.2449 111
49.4025 106
49.56 132
49.7176 144
49.8752 131
50.0065 142