File: Br-Cl_phases/XRD/025s.dat
10.0116 382
10.1692 373
10.3268 378
10.4843 355
10.6419 379
10.7994 349
10.957 354
11.1146 345
11.2721 364
11.4297 342
11.5873 368
11.7448 345
11.9024 328
12.06 376
12.2175 342
12.3751 344
12.5326 340
12.6902 315
12.8478 352
13.0053 336
13.1629 319
13.3205 302
13.478 290
13.6356 290
13.7932 309
13.9507 282
14.1083 306
14.2658 323
14.4234 279
14.581 315
14.7385 410
14.8961 478
15.0537 511
15.2112 553
15.3688 547
15.5263 516
15.6839 487
15.8415 339
15.999 275
16.1566 281
16.3142 233
16.4717 261
16.6293 279
16.7869 277
16.9444 271
17.102 285
17.2595 264
17.4171 280
17.5747 255
17.7322 258
17.8898 259
18.0474 241
18.2049 254
18.3625 253
18.5201 265
18.6776 299
18.8352 294
18.9927 284
19.1503 281
19.3079 243
19.4654 318
19.623 305
19.7806 279
19.9381 316
20.0957 323
20.2533 287
20.4108 309
20.5684 301
20.7259 330
20.8835 369
21.0411 427
21.1986 638
21.3562 766
21.5138 733
21.6713 769
21.8289 754
21.9864 752
22.144 734
22.3016 618
22.4591 441
22.6167 321
22.7743 319
22.9318 309
23.0894 280
23.247 256
23.4045 273
23.5621 266
23.7196 277
23.8772 255
24.0348 282
24.1923 287
24.3499 244
24.5075 269
24.665 256
24.8226 287
24.9802 287
25.1377 253
25.2953 229
25.4528 243
25.6104 213
25.768 247
25.9255 223
26.0831 229
26.2407 225
26.3982 231
26.5558 237
26.7133 217
26.8709 215
27.0285 193
27.186 205
27.3436 180
27.5012 185
27.6587 190
27.8163 220
27.9739 210
28.1314 208
28.289 172
28.4465 206
28.6041 189
28.7617 192
28.9192 198
29.0768 204
29.2344 192
29.3919 208
29.5495 235
29.7071 276
29.8646 305
30.0222 359
30.1797 476
30.3373 506
30.4949 547
30.6524 563
30.81 588
30.9676 580
31.1251 553
31.2827 555
31.4403 570
31.5978 528
31.7554 455
31.9129 360
32.0705 229
32.2281 170
32.3856 157
32.5432 142
32.7008 132
32.8583 139
33.0159 127
33.1734 167
33.331 142
33.4886 144
33.6461 166
33.8037 165
33.9613 198
34.1188 198
34.2764 210
34.434 226
34.5915 221
34.7491 212
34.9066 194
35.0642 208
35.2218 218
35.3793 198
35.5369 165
35.6945 165
35.852 131
36.0096 148
36.1672 122
36.3247 127
36.4823 114
36.6398 133
36.7974 123
36.955 183
37.1125 215
37.2701 211
37.4277 273
37.5852 281
37.7428 267
37.9004 271
38.0579 330
38.2155 298
38.373 276
38.5306 328
38.6882 272
38.8457 251
39.0033 221
39.1609 225
39.3184 176
39.476 137
39.6335 122
39.7911 115
39.9487 123
40.1062 110
40.2638 105
40.4214 108
40.5789 79
40.7365 98
40.8941 122
41.0516 88
41.2092 110
41.3667 97
41.5243 108
41.6819 94
41.8394 96
41.997 110
42.1546 119
42.3121 112
42.4697 94
42.6273 112
42.7848 125
42.9424 125
43.0999 151
43.2575 175
43.4151 167
43.5726 187
43.7302 176
43.8878 207
44.0453 209
44.2029 205
44.3604 206
44.518 184
44.6756 223
44.8331 202
44.9907 195
45.1483 201
45.3058 197
45.4634 184
45.621 157
45.7785 141
45.9361 112
46.0936 127
46.2512 121
46.4088 125
46.5663 133
46.7239 139
46.8815 129
47.039 117
47.1966 120
47.3542 116
47.5117 107
47.6693 139
47.8268 120
47.9844 128
48.142 110
48.2995 115
48.4571 128
48.6147 114
48.7722 117
48.9298 129
49.0874 117
49.2449 128
49.4025 141
49.56 136
49.7176 118
49.8752 126
50.0065 126