File: Br-Cl_phases/XRD/120s.dat
10.0116 371
10.1692 370
10.3268 382
10.4843 364
10.6419 341
10.7994 351
10.957 382
11.1146 355
11.2721 348
11.4297 341
11.5873 334
11.7448 344
11.9024 314
12.06 321
12.2175 354
12.3751 298
12.5326 362
12.6902 321
12.8478 338
13.0053 332
13.1629 314
13.3205 320
13.478 269
13.6356 244
13.7932 290
13.9507 288
14.1083 268
14.2658 301
14.4234 281
14.581 313
14.7385 341
14.8961 390
15.0537 446
15.2112 570
15.3688 601
15.5263 567
15.6839 549
15.8415 505
15.999 312
16.1566 271
16.3142 247
16.4717 251
16.6293 245
16.7869 299
16.9444 261
17.102 309
17.2595 243
17.4171 265
17.5747 273
17.7322 292
17.8898 284
18.0474 292
18.2049 279
18.3625 263
18.5201 283
18.6776 309
18.8352 249
18.9927 254
19.1503 267
19.3079 320
19.4654 276
19.623 331
19.7806 313
19.9381 307
20.0957 282
20.2533 335
20.4108 316
20.5684 324
20.7259 321
20.8835 376
21.0411 410
21.1986 575
21.3562 737
21.5138 850
21.6713 999
21.8289 982
21.9864 967
22.144 1050
22.3016 916
22.4591 785
22.6167 481
22.7743 376
22.9318 272
23.0894 301
23.247 257
23.4045 276
23.5621 241
23.7196 259
23.8772 259
24.0348 258
24.1923 279
24.3499 249
24.5075 239
24.665 244
24.8226 246
24.9802 234
25.1377 251
25.2953 230
25.4528 220
25.6104 238
25.768 219
25.9255 215
26.0831 219
26.2407 238
26.3982 209
26.5558 206
26.7133 191
26.8709 193
27.0285 193
27.186 192
27.3436 163
27.5012 201
27.6587 204
27.8163 191
27.9739 178
28.1314 205
28.289 199
28.4465 208
28.6041 168
28.7617 202
28.9192 202
29.0768 188
29.2344 211
29.3919 208
29.5495 201
29.7071 205
29.8646 219
30.0222 211
30.1797 314
30.3373 349
30.4949 407
30.6524 483
30.81 523
30.9676 485
31.1251 515
31.2827 579
31.4403 544
31.5978 537
31.7554 486
31.9129 450
32.0705 395
32.2281 239
32.3856 149
32.5432 149
32.7008 156
32.8583 124
33.0159 170
33.1734 133
33.331 136
33.4886 143
33.6461 143
33.8037 163
33.9613 149
34.1188 166
34.2764 190
34.434 192
34.5915 208
34.7491 186
34.9066 181
35.0642 182
35.2218 189
35.3793 207
35.5369 191
35.6945 196
35.852 162
36.0096 160
36.1672 129
36.3247 120
36.4823 105
36.6398 136
36.7974 129
36.955 128
37.1125 147
37.2701 187
37.4277 190
37.5852 205
37.7428 263
37.9004 230
38.0579 270
38.2155 256
38.373 303
38.5306 280
38.6882 288
38.8457 275
39.0033 264
39.1609 279
39.3184 248
39.476 221
39.6335 159
39.7911 120
39.9487 127
40.1062 110
40.2638 108
40.4214 106
40.5789 101
40.7365 121
40.8941 113
41.0516 96
41.2092 109
41.3667 101
41.5243 102
41.6819 105
41.8394 106
41.997 87
42.1546 106
42.3121 102
42.4697 94
42.6273 96
42.7848 96
42.9424 104
43.0999 116
43.2575 110
43.4151 131
43.5726 152
43.7302 167
43.8878 170
44.0453 147
44.2029 170
44.3604 174
44.518 223
44.6756 183
44.8331 200
44.9907 206
45.1483 159
45.3058 206
45.4634 197
45.621 188
45.7785 162
45.9361 145
46.0936 145
46.2512 115
46.4088 131
46.5663 109
46.7239 127
46.8815 101
47.039 131
47.1966 116
47.3542 113
47.5117 131
47.6693 108
47.8268 116
47.9844 134
48.142 120
48.2995 120
48.4571 102
48.6147 112
48.7722 130
48.9298 106
49.0874 113
49.2449 134
49.4025 121
49.56 124
49.7176 142
49.8752 147
50.0065 131