File: Br-Cl_phases/XRD/180s.dat
10.0116 370
10.1692 376
10.3268 375
10.4843 347
10.6419 356
10.7994 360
10.957 365
11.1146 368
11.2721 340
11.4297 355
11.5873 305
11.7448 337
11.9024 328
12.06 346
12.2175 360
12.3751 322
12.5326 343
12.6902 285
12.8478 308
13.0053 317
13.1629 303
13.3205 321
13.478 301
13.6356 302
13.7932 276
13.9507 259
14.1083 282
14.2658 265
14.4234 282
14.581 307
14.7385 332
14.8961 404
15.0537 510
15.2112 589
15.3688 621
15.5263 638
15.6839 608
15.8415 553
15.999 384
16.1566 306
16.3142 268
16.4717 261
16.6293 261
16.7869 287
16.9444 252
17.102 258
17.2595 288
17.4171 247
17.5747 289
17.7322 260
17.8898 245
18.0474 309
18.2049 299
18.3625 291
18.5201 273
18.6776 299
18.8352 288
18.9927 265
19.1503 296
19.3079 305
19.4654 294
19.623 343
19.7806 302
19.9381 287
20.0957 298
20.2533 317
20.4108 279
20.5684 319
20.7259 350
20.8835 327
21.0411 419
21.1986 616
21.3562 852
21.5138 884
21.6713 988
21.8289 937
21.9864 975
22.144 1060
22.3016 1030
22.4591 919
22.6167 677
22.7743 353
22.9318 307
23.0894 284
23.247 268
23.4045 275
23.5621 286
23.7196 267
23.8772 257
24.0348 228
24.1923 286
24.3499 236
24.5075 230
24.665 221
24.8226 246
24.9802 234
25.1377 256
25.2953 225
25.4528 220
25.6104 235
25.768 251
25.9255 232
26.0831 212
26.2407 266
26.3982 201
26.5558 214
26.7133 199
26.8709 214
27.0285 176
27.186 192
27.3436 201
27.5012 192
27.6587 166
27.8163 196
27.9739 190
28.1314 191
28.289 200
28.4465 182
28.6041 185
28.7617 198
28.9192 165
29.0768 178
29.2344 212
29.3919 182
29.5495 207
29.7071 204
29.8646 187
30.0222 223
30.1797 280
30.3373 344
30.4949 405
30.6524 441
30.81 452
30.9676 495
31.1251 475
31.2827 532
31.4403 501
31.5978 539
31.7554 529
31.9129 459
32.0705 427
32.2281 314
32.3856 187
32.5432 148
32.7008 154
32.8583 154
33.0159 136
33.1734 127
33.331 121
33.4886 143
33.6461 148
33.8037 139
33.9613 153
34.1188 191
34.2764 170
34.434 200
34.5915 204
34.7491 206
34.9066 172
35.0642 176
35.2218 191
35.3793 188
35.5369 199
35.6945 159
35.852 179
36.0096 186
36.1672 159
36.3247 128
36.4823 131
36.6398 133
36.7974 123
36.955 121
37.1125 120
37.2701 189
37.4277 186
37.5852 214
37.7428 247
37.9004 279
38.0579 262
38.2155 270
38.373 291
38.5306 261
38.6882 273
38.8457 293
39.0033 310
39.1609 251
39.3184 265
39.476 264
39.6335 194
39.7911 144
39.9487 118
40.1062 126
40.2638 113
40.4214 111
40.5789 106
40.7365 123
40.8941 94
41.0516 112
41.2092 96
41.3667 89
41.5243 107
41.6819 90
41.8394 114
41.997 94
42.1546 106
42.3121 92
42.4697 97
42.6273 102
42.7848 93
42.9424 124
43.0999 124
43.2575 122
43.4151 149
43.5726 142
43.7302 134
43.8878 167
44.0453 166
44.2029 169
44.3604 168
44.518 183
44.6756 217
44.8331 209
44.9907 178
45.1483 199
45.3058 173
45.4634 196
45.621 171
45.7785 160
45.9361 147
46.0936 150
46.2512 142
46.4088 124
46.5663 129
46.7239 113
46.8815 120
47.039 121
47.1966 115
47.3542 122
47.5117 109
47.6693 95
47.8268 111
47.9844 122
48.142 114
48.2995 97
48.4571 95
48.6147 123
48.7722 120
48.9298 100
49.0874 120
49.2449 109
49.4025 127
49.56 131
49.7176 134
49.8752 139
50.0065 159