File: Br-Cl_phases/XRD/300s.dat
10.0116 367
10.1692 382
10.3268 359
10.4843 397
10.6419 394
10.7994 387
10.957 317
11.1146 317
11.2721 349
11.4297 335
11.5873 347
11.7448 323
11.9024 339
12.06 329
12.2175 354
12.3751 370
12.5326 325
12.6902 346
12.8478 327
13.0053 359
13.1629 318
13.3205 304
13.478 335
13.6356 295
13.7932 316
13.9507 305
14.1083 263
14.2658 294
14.4234 296
14.581 307
14.7385 359
14.8961 399
15.0537 521
15.2112 613
15.3688 712
15.5263 716
15.6839 697
15.8415 697
15.999 525
16.1566 301
16.3142 299
16.4717 279
16.6293 238
16.7869 267
16.9444 270
17.102 291
17.2595 275
17.4171 249
17.5747 262
17.7322 262
17.8898 232
18.0474 299
18.2049 289
18.3625 263
18.5201 298
18.6776 278
18.8352 251
18.9927 282
19.1503 280
19.3079 307
19.4654 272
19.623 287
19.7806 290
19.9381 299
20.0957 319
20.2533 310
20.4108 306
20.5684 301
20.7259 322
20.8835 314
21.0411 349
21.1986 400
21.3562 449
21.5138 547
21.6713 603
21.8289 624
21.9864 631
22.144 667
22.3016 592
22.4591 550
22.6167 497
22.7743 372
22.9318 291
23.0894 247
23.247 283
23.4045 275
23.5621 275
23.7196 271
23.8772 231
24.0348 223
24.1923 251
24.3499 231
24.5075 230
24.665 250
24.8226 244
24.9802 255
25.1377 264
25.2953 254
25.4528 223
25.6104 215
25.768 185
25.9255 203
26.0831 195
26.2407 210
26.3982 186
26.5558 191
26.7133 221
26.8709 181
27.0285 205
27.186 209
27.3436 188
27.5012 167
27.6587 159
27.8163 198
27.9739 185
28.1314 165
28.289 199
28.4465 160
28.6041 192
28.7617 168
28.9192 195
29.0768 195
29.2344 205
29.3919 192
29.5495 202
29.7071 208
29.8646 212
30.0222 231
30.1797 308
30.3373 359
30.4949 446
30.6524 523
30.81 637
30.9676 686
31.1251 760
31.2827 837
31.4403 763
31.5978 809
31.7554 791
31.9129 736
32.0705 655
32.2281 585
32.3856 354
32.5432 231
32.7008 169
32.8583 163
33.0159 160
33.1734 169
33.331 132
33.4886 146
33.6461 145
33.8037 169
33.9613 158
34.1188 175
34.2764 173
34.434 201
34.5915 183
34.7491 195
34.9066 183
35.0642 179
35.2218 195
35.3793 212
35.5369 212
35.6945 189
35.852 167
36.0096 175
36.1672 159
36.3247 122
36.4823 148
36.6398 141
36.7974 108
36.955 121
37.1125 133
37.2701 140
37.4277 166
37.5852 178
37.7428 188
37.9004 205
38.0579 221
38.2155 279
38.373 239
38.5306 264
38.6882 246
38.8457 246
39.0033 250
39.1609 268
39.3184 279
39.476 230
39.6335 200
39.7911 192
39.9487 136
40.1062 119
40.2638 101
40.4214 123
40.5789 120
40.7365 104
40.8941 112
41.0516 89
41.2092 112
41.3667 89
41.5243 110
41.6819 102
41.8394 100
41.997 77
42.1546 76
42.3121 113
42.4697 99
42.6273 91
42.7848 87
42.9424 95
43.0999 99
43.2575 92
43.4151 118
43.5726 125
43.7302 148
43.8878 129
44.0453 139
44.2029 152
44.3604 156
44.518 125
44.6756 175
44.8331 183
44.9907 179
45.1483 165
45.3058 186
45.4634 173
45.621 186
45.7785 188
45.9361 149
46.0936 158
46.2512 135
46.4088 123
46.5663 124
46.7239 85
46.8815 121
47.039 117
47.1966 120
47.3542 99
47.5117 116
47.6693 101
47.8268 119
47.9844 129
48.142 96
48.2995 106
48.4571 110
48.6147 99
48.7722 99
48.9298 104
49.0874 124
49.2449 126
49.4025 134
49.56 123
49.7176 119
49.8752 144
50.0065 115