File: Br-Cl_phases/XRD/peaks.dat
#GIXRD fit results for sample series 220615
#First peak
#Sample (s)	Position (deg)		Area (arb. units)		FWHM (deg)		Comment
0	15.1423	0.00768931	337.193	12.4644	0.359233	0.010806
8	15.3186	0.00707132	619.102	21.5591	0.377075	0.0104166
13	15.5745	0.0078169	327.083	11.9128	0.312916	0.00987508
25	15.2831	0.011264	295.909	17.091	0.399519	0.0177033
120	15.4359	0.00836818	290.607	11.4558	0.333454	0.0110805
180	15.4497	0.00851516	358.475	14.5533	0.36993	0.0120659
300	15.5171	0.00779159	440.074	15.9741	0.36261	0.0107077

#Second peak
#Sample (s)	Position (deg)		Area (arb. units)		FWHM (deg)
0	21.5511	0.00705408	665.024	10.9532	0.495754	0.00793229
8	21.73	0.00935622	488.191	10.3295	0.523561	0.0106354
13	22.0489	0.00719567	1113.86	19.3081	0.471452	0.00801988	“peak shape differs from others, more symmetric and square-like”
25	21.7514	0.00746381	661.375	11.4843	0.498725	0.00840242
120	21.9094	0.00644633	959.036	14.5456	0.489569	0.0072321
180	21.953	0.00837011	1115.9	21.0025	0.528908	0.00953511
300	22.0121	0.0104169	494.552	11.8933	0.505196	0.0117558

#Third peak
#Sample (s)	Position (deg)		Area (arb. units)		FWHM (deg)
0	30.6439	0.0135103	800.345	25.8371	0.674077	0.0182038
8	30.9982	0.0106105	1226.32	30.5216	0.693497	0.0142874
13	31.4861	0.0120868	628.786	17.3673	0.599432	0.0146643
25	30.9423	0.0128417	772.361	23.3874	0.685113	0.0172527
120	31.2316	0.0132387	636.034	19.5355	0.625414	0.0166401
180	31.2758	0.0134511	647.722	19.7759	0.664136	0.0172099
300	31.4024	0.0113831	1119.94	28.1276	0.675871	0.0144278