File: Br-Cl_phases/XRD/original/220615_25s_GIXRD.xy
10.0116 382.0
10.1692 373.0
10.3268 378.0
10.4843 355.0
10.6419 379.0
10.7994 349.0
10.957 354.0
11.1146 345.0
11.2721 364.0
11.4297 342.0
11.5873 368.0
11.7448 345.0
11.9024 328.0
12.06 376.0
12.2175 342.0
12.3751 344.0
12.5326 340.0
12.6902 315.0
12.8478 352.0
13.0053 336.0
13.1629 319.0
13.3205 302.0
13.478 290.0
13.6356 290.0
13.7932 309.0
13.9507 282.0
14.1083 306.0
14.2658 323.0
14.4234 279.0
14.581 315.0
14.7385 410.0
14.8961 478.0
15.0537 511.0
15.2112 553.0
15.3688 547.0
15.5263 516.0
15.6839 487.0
15.8415 339.0
15.999 275.0
16.1566 281.0
16.3142 233.0
16.4717 261.0
16.6293 279.0
16.7869 277.0
16.9444 271.0
17.102 285.0
17.2595 264.0
17.4171 280.0
17.5747 255.0
17.7322 258.0
17.8898 259.0
18.0474 241.0
18.2049 254.0
18.3625 253.0
18.5201 265.0
18.6776 299.0
18.8352 294.0
18.9927 284.0
19.1503 281.0
19.3079 243.0
19.4654 318.0
19.623 305.0
19.7806 279.0
19.9381 316.0
20.0957 323.0
20.2533 287.0
20.4108 309.0
20.5684 301.0
20.7259 330.0
20.8835 369.0
21.0411 427.0
21.1986 638.0
21.3562 766.0
21.5138 733.0
21.6713 769.0
21.8289 754.0
21.9864 752.0
22.144 734.0
22.3016 618.0
22.4591 441.0
22.6167 321.0
22.7743 319.0
22.9318 309.0
23.0894 280.0
23.247 256.0
23.4045 273.0
23.5621 266.0
23.7196 277.0
23.8772 255.0
24.0348 282.0
24.1923 287.0
24.3499 244.0
24.5075 269.0
24.665 256.0
24.8226 287.0
24.9802 287.0
25.1377 253.0
25.2953 229.0
25.4528 243.0
25.6104 213.0
25.768 247.0
25.9255 223.0
26.0831 229.0
26.2407 225.0
26.3982 231.0
26.5558 237.0
26.7133 217.0
26.8709 215.0
27.0285 193.0
27.186 205.0
27.3436 180.0
27.5012 185.0
27.6587 190.0
27.8163 220.0
27.9739 210.0
28.1314 208.0
28.289 172.0
28.4465 206.0
28.6041 189.0
28.7617 192.0
28.9192 198.0
29.0768 204.0
29.2344 192.0
29.3919 208.0
29.5495 235.0
29.7071 276.0
29.8646 305.0
30.0222 359.0
30.1797 476.0
30.3373 506.0
30.4949 547.0
30.6524 563.0
30.81 588.0
30.9676 580.0
31.1251 553.0
31.2827 555.0
31.4403 570.0
31.5978 528.0
31.7554 455.0
31.9129 360.0
32.0705 229.0
32.2281 170.0
32.3856 157.0
32.5432 142.0
32.7008 132.0
32.8583 139.0
33.0159 127.0
33.1734 167.0
33.331 142.0
33.4886 144.0
33.6461 166.0
33.8037 165.0
33.9613 198.0
34.1188 198.0
34.2764 210.0
34.434 226.0
34.5915 221.0
34.7491 212.0
34.9066 194.0
35.0642 208.0
35.2218 218.0
35.3793 198.0
35.5369 165.0
35.6945 165.0
35.852 131.0
36.0096 148.0
36.1672 122.0
36.3247 127.0
36.4823 114.0
36.6398 133.0
36.7974 123.0
36.955 183.0
37.1125 215.0
37.2701 211.0
37.4277 273.0
37.5852 281.0
37.7428 267.0
37.9004 271.0
38.0579 330.0
38.2155 298.0
38.373 276.0
38.5306 328.0
38.6882 272.0
38.8457 251.0
39.0033 221.0
39.1609 225.0
39.3184 176.0
39.476 137.0
39.6335 122.0
39.7911 115.0
39.9487 123.0
40.1062 110.0
40.2638 105.0
40.4214 108.0
40.5789 79.0
40.7365 98.0
40.8941 122.0
41.0516 88.0
41.2092 110.0
41.3667 97.0
41.5243 108.0
41.6819 94.0
41.8394 96.0
41.997 110.0
42.1546 119.0
42.3121 112.0
42.4697 94.0
42.6273 112.0
42.7848 125.0
42.9424 125.0
43.0999 151.0
43.2575 175.0
43.4151 167.0
43.5726 187.0
43.7302 176.0
43.8878 207.0
44.0453 209.0
44.2029 205.0
44.3604 206.0
44.518 184.0
44.6756 223.0
44.8331 202.0
44.9907 195.0
45.1483 201.0
45.3058 197.0
45.4634 184.0
45.621 157.0
45.7785 141.0
45.9361 112.0
46.0936 127.0
46.2512 121.0
46.4088 125.0
46.5663 133.0
46.7239 139.0
46.8815 129.0
47.039 117.0
47.1966 120.0
47.3542 116.0
47.5117 107.0
47.6693 139.0
47.8268 120.0
47.9844 128.0
48.142 110.0
48.2995 115.0
48.4571 128.0
48.6147 114.0
48.7722 117.0
48.9298 129.0
49.0874 117.0
49.2449 128.0
49.4025 141.0
49.56 136.0
49.7176 118.0
49.8752 126.0
50.0065 126.0