File: Br-Cl_phases/XRD/original/220615_8s_GIXRD.xy
10.0116 366.0
10.1692 359.0
10.3268 346.0
10.4843 331.0
10.6419 386.0
10.7994 368.0
10.957 380.0
11.1146 367.0
11.2721 377.0
11.4297 377.0
11.5873 338.0
11.7448 337.0
11.9024 358.0
12.06 329.0
12.2175 362.0
12.3751 385.0
12.5326 352.0
12.6902 371.0
12.8478 355.0
13.0053 343.0
13.1629 306.0
13.3205 271.0
13.478 308.0
13.6356 307.0
13.7932 311.0
13.9507 282.0
14.1083 318.0
14.2658 269.0
14.4234 343.0
14.581 318.0
14.7385 460.0
14.8961 676.0
15.0537 748.0
15.2112 843.0
15.3688 875.0
15.5263 831.0
15.6839 734.0
15.8415 535.0
15.999 302.0
16.1566 276.0
16.3142 307.0
16.4717 291.0
16.6293 275.0
16.7869 279.0
16.9444 257.0
17.102 266.0
17.2595 252.0
17.4171 267.0
17.5747 245.0
17.7322 289.0
17.8898 278.0
18.0474 253.0
18.2049 276.0
18.3625 273.0
18.5201 283.0
18.6776 322.0
18.8352 285.0
18.9927 272.0
19.1503 326.0
19.3079 334.0
19.4654 288.0
19.623 304.0
19.7806 323.0
19.9381 293.0
20.0957 295.0
20.2533 310.0
20.4108 300.0
20.5684 336.0
20.7259 351.0
20.8835 362.0
21.0411 455.0
21.1986 563.0
21.3562 597.0
21.5138 668.0
21.6713 598.0
21.8289 620.0
21.9864 619.0
22.144 576.0
22.3016 512.0
22.4591 420.0
22.6167 313.0
22.7743 277.0
22.9318 267.0
23.0894 242.0
23.247 290.0
23.4045 282.0
23.5621 242.0
23.7196 303.0
23.8772 306.0
24.0348 300.0
24.1923 293.0
24.3499 286.0
24.5075 285.0
24.665 259.0
24.8226 252.0
24.9802 254.0
25.1377 247.0
25.2953 249.0
25.4528 259.0
25.6104 236.0
25.768 227.0
25.9255 216.0
26.0831 225.0
26.2407 221.0
26.3982 213.0
26.5558 186.0
26.7133 214.0
26.8709 204.0
27.0285 194.0
27.186 200.0
27.3436 200.0
27.5012 207.0
27.6587 204.0
27.8163 207.0
27.9739 226.0
28.1314 218.0
28.289 207.0
28.4465 207.0
28.6041 206.0
28.7617 184.0
28.9192 178.0
29.0768 221.0
29.2344 209.0
29.3919 241.0
29.5495 214.0
29.7071 279.0
29.8646 392.0
30.0222 421.0
30.1797 519.0
30.3373 675.0
30.4949 757.0
30.6524 777.0
30.81 807.0
30.9676 835.0
31.1251 837.0
31.2827 808.0
31.4403 819.0
31.5978 779.0
31.7554 623.0
31.9129 561.0
32.0705 335.0
32.2281 189.0
32.3856 169.0
32.5432 179.0
32.7008 151.0
32.8583 163.0
33.0159 127.0
33.1734 166.0
33.331 152.0
33.4886 186.0
33.6461 211.0
33.8037 193.0
33.9613 196.0
34.1188 197.0
34.2764 224.0
34.434 228.0
34.5915 199.0
34.7491 242.0
34.9066 240.0
35.0642 211.0
35.2218 199.0
35.3793 201.0
35.5369 173.0
35.6945 186.0
35.852 157.0
36.0096 140.0
36.1672 133.0
36.3247 121.0
36.4823 163.0
36.6398 127.0
36.7974 148.0
36.955 155.0
37.1125 227.0
37.2701 220.0
37.4277 217.0
37.5852 244.0
37.7428 228.0
37.9004 265.0
38.0579 253.0
38.2155 273.0
38.373 277.0
38.5306 255.0
38.6882 260.0
38.8457 235.0
39.0033 213.0
39.1609 221.0
39.3184 187.0
39.476 143.0
39.6335 122.0
39.7911 113.0
39.9487 122.0
40.1062 108.0
40.2638 83.0
40.4214 109.0
40.5789 98.0
40.7365 123.0
40.8941 105.0
41.0516 122.0
41.2092 112.0
41.3667 110.0
41.5243 113.0
41.6819 87.0
41.8394 99.0
41.997 86.0
42.1546 100.0
42.3121 114.0
42.4697 106.0
42.6273 115.0
42.7848 126.0
42.9424 139.0
43.0999 121.0
43.2575 144.0
43.4151 142.0
43.5726 165.0
43.7302 164.0
43.8878 167.0
44.0453 163.0
44.2029 180.0
44.3604 155.0
44.518 174.0
44.6756 188.0
44.8331 164.0
44.9907 190.0
45.1483 175.0
45.3058 171.0
45.4634 179.0
45.621 139.0
45.7785 120.0
45.9361 129.0
46.0936 132.0
46.2512 112.0
46.4088 131.0
46.5663 150.0
46.7239 126.0
46.8815 121.0
47.039 143.0
47.1966 107.0
47.3542 114.0
47.5117 123.0
47.6693 122.0
47.8268 123.0
47.9844 112.0
48.142 130.0
48.2995 147.0
48.4571 125.0
48.6147 117.0
48.7722 115.0
48.9298 134.0
49.0874 139.0
49.2449 131.0
49.4025 131.0
49.56 147.0
49.7176 129.0
49.8752 135.0
50.0065 152.0