File: Br-Cl_phases/XRD/original/220615_300s_GIXRD.xy
10.0116 367.0
10.1692 382.0
10.3268 359.0
10.4843 397.0
10.6419 394.0
10.7994 387.0
10.957 317.0
11.1146 317.0
11.2721 349.0
11.4297 335.0
11.5873 347.0
11.7448 323.0
11.9024 339.0
12.06 329.0
12.2175 354.0
12.3751 370.0
12.5326 325.0
12.6902 346.0
12.8478 327.0
13.0053 359.0
13.1629 318.0
13.3205 304.0
13.478 335.0
13.6356 295.0
13.7932 316.0
13.9507 305.0
14.1083 263.0
14.2658 294.0
14.4234 296.0
14.581 307.0
14.7385 359.0
14.8961 399.0
15.0537 521.0
15.2112 613.0
15.3688 712.0
15.5263 716.0
15.6839 697.0
15.8415 697.0
15.999 525.0
16.1566 301.0
16.3142 299.0
16.4717 279.0
16.6293 238.0
16.7869 267.0
16.9444 270.0
17.102 291.0
17.2595 275.0
17.4171 249.0
17.5747 262.0
17.7322 262.0
17.8898 232.0
18.0474 299.0
18.2049 289.0
18.3625 263.0
18.5201 298.0
18.6776 278.0
18.8352 251.0
18.9927 282.0
19.1503 280.0
19.3079 307.0
19.4654 272.0
19.623 287.0
19.7806 290.0
19.9381 299.0
20.0957 319.0
20.2533 310.0
20.4108 306.0
20.5684 301.0
20.7259 322.0
20.8835 314.0
21.0411 349.0
21.1986 400.0
21.3562 449.0
21.5138 547.0
21.6713 603.0
21.8289 624.0
21.9864 631.0
22.144 667.0
22.3016 592.0
22.4591 550.0
22.6167 497.0
22.7743 372.0
22.9318 291.0
23.0894 247.0
23.247 283.0
23.4045 275.0
23.5621 275.0
23.7196 271.0
23.8772 231.0
24.0348 223.0
24.1923 251.0
24.3499 231.0
24.5075 230.0
24.665 250.0
24.8226 244.0
24.9802 255.0
25.1377 264.0
25.2953 254.0
25.4528 223.0
25.6104 215.0
25.768 185.0
25.9255 203.0
26.0831 195.0
26.2407 210.0
26.3982 186.0
26.5558 191.0
26.7133 221.0
26.8709 181.0
27.0285 205.0
27.186 209.0
27.3436 188.0
27.5012 167.0
27.6587 159.0
27.8163 198.0
27.9739 185.0
28.1314 165.0
28.289 199.0
28.4465 160.0
28.6041 192.0
28.7617 168.0
28.9192 195.0
29.0768 195.0
29.2344 205.0
29.3919 192.0
29.5495 202.0
29.7071 208.0
29.8646 212.0
30.0222 231.0
30.1797 308.0
30.3373 359.0
30.4949 446.0
30.6524 523.0
30.81 637.0
30.9676 686.0
31.1251 760.0
31.2827 837.0
31.4403 763.0
31.5978 809.0
31.7554 791.0
31.9129 736.0
32.0705 655.0
32.2281 585.0
32.3856 354.0
32.5432 231.0
32.7008 169.0
32.8583 163.0
33.0159 160.0
33.1734 169.0
33.331 132.0
33.4886 146.0
33.6461 145.0
33.8037 169.0
33.9613 158.0
34.1188 175.0
34.2764 173.0
34.434 201.0
34.5915 183.0
34.7491 195.0
34.9066 183.0
35.0642 179.0
35.2218 195.0
35.3793 212.0
35.5369 212.0
35.6945 189.0
35.852 167.0
36.0096 175.0
36.1672 159.0
36.3247 122.0
36.4823 148.0
36.6398 141.0
36.7974 108.0
36.955 121.0
37.1125 133.0
37.2701 140.0
37.4277 166.0
37.5852 178.0
37.7428 188.0
37.9004 205.0
38.0579 221.0
38.2155 279.0
38.373 239.0
38.5306 264.0
38.6882 246.0
38.8457 246.0
39.0033 250.0
39.1609 268.0
39.3184 279.0
39.476 230.0
39.6335 200.0
39.7911 192.0
39.9487 136.0
40.1062 119.0
40.2638 101.0
40.4214 123.0
40.5789 120.0
40.7365 104.0
40.8941 112.0
41.0516 89.0
41.2092 112.0
41.3667 89.0
41.5243 110.0
41.6819 102.0
41.8394 100.0
41.997 77.0
42.1546 76.0
42.3121 113.0
42.4697 99.0
42.6273 91.0
42.7848 87.0
42.9424 95.0
43.0999 99.0
43.2575 92.0
43.4151 118.0
43.5726 125.0
43.7302 148.0
43.8878 129.0
44.0453 139.0
44.2029 152.0
44.3604 156.0
44.518 125.0
44.6756 175.0
44.8331 183.0
44.9907 179.0
45.1483 165.0
45.3058 186.0
45.4634 173.0
45.621 186.0
45.7785 188.0
45.9361 149.0
46.0936 158.0
46.2512 135.0
46.4088 123.0
46.5663 124.0
46.7239 85.0
46.8815 121.0
47.039 117.0
47.1966 120.0
47.3542 99.0
47.5117 116.0
47.6693 101.0
47.8268 119.0
47.9844 129.0
48.142 96.0
48.2995 106.0
48.4571 110.0
48.6147 99.0
48.7722 99.0
48.9298 104.0
49.0874 124.0
49.2449 126.0
49.4025 134.0
49.56 123.0
49.7176 119.0
49.8752 144.0
50.0065 115.0