File: Br-Cl_phases/XRD/original/220615_0s_GIXRD.xy
10.0116 367.0
10.1692 416.0
10.3268 370.0
10.4843 361.0
10.6419 375.0
10.7994 361.0
10.957 360.0
11.1146 354.0
11.2721 333.0
11.4297 360.0
11.5873 347.0
11.7448 356.0
11.9024 355.0
12.06 315.0
12.2175 328.0
12.3751 338.0
12.5326 340.0
12.6902 344.0
12.8478 339.0
13.0053 318.0
13.1629 317.0
13.3205 301.0
13.478 344.0
13.6356 308.0
13.7932 286.0
13.9507 282.0
14.1083 266.0
14.2658 296.0
14.4234 299.0
14.581 421.0
14.7385 460.0
14.8961 584.0
15.0537 644.0
15.2112 619.0
15.3688 628.0
15.5263 530.0
15.6839 367.0
15.8415 278.0
15.999 283.0
16.1566 239.0
16.3142 263.0
16.4717 275.0
16.6293 285.0
16.7869 252.0
16.9444 276.0
17.102 231.0
17.2595 292.0
17.4171 300.0
17.5747 264.0
17.7322 260.0
17.8898 271.0
18.0474 264.0
18.2049 249.0
18.3625 282.0
18.5201 249.0
18.6776 308.0
18.8352 267.0
18.9927 279.0
19.1503 291.0
19.3079 309.0
19.4654 312.0
19.623 281.0
19.7806 306.0
19.9381 302.0
20.0957 323.0
20.2533 292.0
20.4108 308.0
20.5684 332.0
20.7259 410.0
20.8835 539.0
21.0411 649.0
21.1986 750.0
21.3562 731.0
21.5138 766.0
21.6713 799.0
21.8289 753.0
21.9864 678.0
22.144 612.0
22.3016 384.0
22.4591 355.0
22.6167 292.0
22.7743 245.0
22.9318 297.0
23.0894 275.0
23.247 292.0
23.4045 257.0
23.5621 280.0
23.7196 272.0
23.8772 331.0
24.0348 296.0
24.1923 281.0
24.3499 272.0
24.5075 292.0
24.665 289.0
24.8226 277.0
24.9802 270.0
25.1377 267.0
25.2953 267.0
25.4528 247.0
25.6104 272.0
25.768 249.0
25.9255 258.0
26.0831 254.0
26.2407 217.0
26.3982 231.0
26.5558 204.0
26.7133 228.0
26.8709 231.0
27.0285 195.0
27.186 206.0
27.3436 182.0
27.5012 189.0
27.6587 199.0
27.8163 198.0
27.9739 187.0
28.1314 206.0
28.289 212.0
28.4465 229.0
28.6041 203.0
28.7617 207.0
28.9192 200.0
29.0768 195.0
29.2344 222.0
29.3919 248.0
29.5495 314.0
29.7071 377.0
29.8646 402.0
30.0222 467.0
30.1797 577.0
30.3373 580.0
30.4949 574.0
30.6524 592.0
30.81 599.0
30.9676 612.0
31.1251 562.0
31.2827 505.0
31.4403 539.0
31.5978 321.0
31.7554 201.0
31.9129 185.0
32.0705 160.0
32.2281 153.0
32.3856 142.0
32.5432 140.0
32.7008 146.0
32.8583 147.0
33.0159 141.0
33.1734 175.0
33.331 188.0
33.4886 200.0
33.6461 212.0
33.8037 210.0
33.9613 221.0
34.1188 275.0
34.2764 249.0
34.434 245.0
34.5915 230.0
34.7491 248.0
34.9066 223.0
35.0642 214.0
35.2218 204.0
35.3793 176.0
35.5369 170.0
35.6945 140.0
35.852 120.0
36.0096 118.0
36.1672 118.0
36.3247 179.0
36.4823 171.0
36.6398 192.0
36.7974 191.0
36.955 251.0
37.1125 249.0
37.2701 251.0
37.4277 270.0
37.5852 287.0
37.7428 274.0
37.9004 286.0
38.0579 303.0
38.2155 310.0
38.373 284.0
38.5306 256.0
38.6882 254.0
38.8457 183.0
39.0033 164.0
39.1609 120.0
39.3184 115.0
39.476 118.0
39.6335 106.0
39.7911 110.0
39.9487 115.0
40.1062 126.0
40.2638 101.0
40.4214 86.0
40.5789 87.0
40.7365 88.0
40.8941 84.0
41.0516 81.0
41.2092 91.0
41.3667 105.0
41.5243 107.0
41.6819 105.0
41.8394 122.0
41.997 104.0
42.1546 106.0
42.3121 123.0
42.4697 163.0
42.6273 120.0
42.7848 155.0
42.9424 176.0
43.0999 182.0
43.2575 163.0
43.4151 195.0
43.5726 235.0
43.7302 210.0
43.8878 217.0
44.0453 226.0
44.2029 215.0
44.3604 204.0
44.518 226.0
44.6756 234.0
44.8331 192.0
44.9907 167.0
45.1483 184.0
45.3058 169.0
45.4634 139.0
45.621 130.0
45.7785 120.0
45.9361 137.0
46.0936 165.0
46.2512 165.0
46.4088 145.0
46.5663 134.0
46.7239 121.0
46.8815 125.0
47.039 135.0
47.1966 145.0
47.3542 125.0
47.5117 139.0
47.6693 128.0
47.8268 132.0
47.9844 134.0
48.142 122.0
48.2995 127.0
48.4571 114.0
48.6147 131.0
48.7722 133.0
48.9298 132.0
49.0874 125.0
49.2449 155.0
49.4025 150.0
49.56 128.0
49.7176 139.0
49.8752 144.0
50.0065 122.0