File: Br-Cl_phases/XRD/original/220615_180s_GIXRD.xy
5.00308 43.0
5.25912 45.0
5.51516 41.0
5.7712 36.0
6.02724 41.0
6.28329 42.0
6.53933 43.0
6.79537 40.0
7.05141 26.0
7.30745 36.0
7.56349 33.0
7.81953 31.0
8.07557 31.0
8.33161 25.0
8.58765 28.0
8.84369 28.0
9.09973 28.0
9.35577 30.0
9.61181 22.0
9.86785 31.0
10.1239 21.0
10.3799 28.0
10.636 22.0
10.892 19.0
11.1481 22.0
11.4041 29.0
11.6601 32.0
11.9162 19.0
12.1722 21.0
12.4283 25.0
12.6843 28.0
12.9403 24.0
13.1964 24.0
13.4524 21.0
13.7085 21.0
13.9645 17.0
14.2205 22.0
14.4766 23.0
14.7326 22.0
14.9887 39.0
15.2447 35.0
15.5007 42.0
15.7568 43.0
16.0128 25.0
16.2689 16.0
16.5249 20.0
16.7809 9.0
17.037 17.0
17.293 19.0
17.5491 14.0
17.8051 22.0
18.0611 18.0
18.3172 16.0
18.5732 18.0
18.8293 22.0
19.0853 18.0
19.3414 9.0
19.5974 13.0
19.8534 20.0
20.1095 20.0
20.3655 13.0
20.6216 14.0
20.8776 26.0
21.1336 41.0
21.3897 72.0
21.6457 65.0
21.9018 65.0
22.1578 67.0
22.4138 89.0
22.6699 52.0
22.9259 14.0
23.182 15.0
23.438 22.0
23.694 22.0
23.9501 18.0
24.2061 14.0
24.4622 18.0
24.7182 15.0
24.9742 12.0
25.2303 18.0
25.4863 12.0
25.7424 15.0
25.9984 15.0
26.2544 15.0
26.5105 15.0
26.7665 10.0
27.0226 18.0
27.2786 10.0
27.5346 14.0
27.7907 11.0
28.0467 17.0
28.3028 16.0
28.5588 17.0
28.8149 12.0
29.0709 12.0
29.3269 14.0
29.583 18.0
29.839 10.0
30.0951 9.0
30.3511 16.0
30.6071 31.0
30.8632 18.0
31.1192 37.0
31.3753 37.0
31.6313 39.0
31.8873 25.0
32.1434 20.0
32.3994 20.0
32.6555 14.0
32.9115 9.0
33.1675 9.0
33.4236 5.0
33.6796 8.0
33.9357 17.0
34.1917 13.0
34.4477 6.0
34.7038 13.0
34.9598 8.0
35.2159 15.0
35.4719 11.0
35.7279 12.0
35.984 8.0
36.24 6.0
36.4961 7.0
36.7521 6.0
37.0081 8.0
37.2642 10.0
37.5202 14.0
37.7763 22.0
38.0323 12.0
38.2883 15.0
38.5444 18.0
38.8004 15.0
39.0565 20.0
39.3125 17.0
39.5686 15.0
39.8246 11.0
40.0806 7.0
40.3367 6.0
40.5927 12.0
40.8488 4.0
41.1048 4.0
41.3608 4.0
41.6169 8.0
41.8729 9.0
42.129 12.0
42.385 10.0
42.641 11.0
42.8971 9.0
43.1531 10.0
43.4092 5.0
43.6652 10.0
43.9212 9.0
44.1773 13.0
44.4333 20.0
44.6894 12.0
44.9454 15.0
45.2014 14.0
45.4575 15.0
45.7135 17.0
45.9696 9.0
46.2256 6.0
46.4816 7.0
46.7377 8.0
46.9937 4.0
47.2498 10.0
47.5058 6.0
47.7618 7.0
48.0179 15.0
48.2739 7.0
48.53 10.0
48.786 7.0
49.0421 6.0
49.2981 11.0
49.5541 12.0
49.8102 8.0
50.0662 12.0
50.3223 9.0
50.5783 12.0
50.8343 8.0
51.0904 9.0
51.3464 13.0
51.6025 9.0
51.8585 9.0
52.1145 9.0
52.3706 7.0
52.6266 9.0
52.8827 3.0
53.1387 8.0
53.3947 9.0
53.6508 4.0
53.9068 11.0
54.1629 8.0
54.4189 6.0
54.6749 12.0
54.931 8.0
55.187 8.0
55.4431 5.0
55.6991 11.0
55.9551 8.0
56.2112 4.0
56.4672 7.0
56.7233 10.0
56.9793 11.0
57.2353 3.0
57.4914 3.0
57.7474 7.0
58.0035 10.0
58.2595 4.0
58.5155 8.0
58.7716 8.0
59.0276 5.0
59.2837 11.0
59.5397 6.0
59.7958 3.0
60.0518 6.0
60.3078 14.0
60.5639 5.0
60.8199 6.0
61.076 6.0
61.332 6.0
61.588 3.0
61.8441 6.0
62.1001 7.0
62.3562 8.0
62.6122 6.0
62.8682 5.0
63.1243 4.0
63.3803 7.0
63.6364 6.0
63.8924 10.0
64.1484 6.0
64.4045 5.0
64.6605 5.0
64.9166 2.0
65.1726 7.0
65.4286 6.0
65.6847 3.0
65.9407 7.0
66.1968 4.0
66.4528 5.0
66.7088 9.0
66.9649 2.0
67.2209 6.0
67.477 4.0
67.733 7.0
67.989 3.0
68.2451 5.0
68.5011 0.0
68.7572 9.0
69.0132 4.0
69.2693 6.0
69.5253 8.0
69.7813 0.0
70.0374 9.0
70.2934 5.0
70.5495 2.0
70.8055 3.0
71.0615 3.0
71.3176 5.0
71.5736 3.0
71.8297 3.0
72.0857 3.0
72.3417 5.0
72.5978 3.0
72.8538 6.0
73.1099 4.0
73.3659 8.0
73.6219 6.0
73.878 5.0
74.134 7.0
74.3901 8.0
74.6461 4.0
74.9021 8.0
75.1582 5.0
75.4142 6.0
75.6703 3.0
75.9263 6.0
76.1823 6.0
76.4384 6.0
76.6944 3.0
76.9505 5.0
77.2065 5.0
77.4625 6.0
77.7186 3.0
77.9746 8.0
78.2307 6.0
78.4867 4.0
78.7428 3.0
78.9988 7.0
79.2548 5.0
79.5109 6.0
79.7669 7.0
79.9967 1.0