File: Br-Cl_phases/XRD/original/220615_13s_GIXRD.xy
10.0116 340.0
10.1692 371.0
10.3268 404.0
10.4843 350.0
10.6419 363.0
10.7994 368.0
10.957 346.0
11.1146 350.0
11.2721 367.0
11.4297 379.0
11.5873 354.0
11.7448 324.0
11.9024 321.0
12.06 329.0
12.2175 326.0
12.3751 350.0
12.5326 326.0
12.6902 340.0
12.8478 323.0
13.0053 329.0
13.1629 297.0
13.3205 311.0
13.478 305.0
13.6356 319.0
13.7932 283.0
13.9507 282.0
14.1083 287.0
14.2658 300.0
14.4234 296.0
14.581 283.0
14.7385 296.0
14.8961 304.0
15.0537 400.0
15.2112 515.0
15.3688 605.0
15.5263 629.0
15.6839 685.0
15.8415 596.0
15.999 411.0
16.1566 299.0
16.3142 281.0
16.4717 267.0
16.6293 276.0
16.7869 270.0
16.9444 236.0
17.102 237.0
17.2595 274.0
17.4171 294.0
17.5747 276.0
17.7322 255.0
17.8898 277.0
18.0474 296.0
18.2049 274.0
18.3625 273.0
18.5201 280.0
18.6776 288.0
18.8352 316.0
18.9927 287.0
19.1503 265.0
19.3079 289.0
19.4654 301.0
19.623 288.0
19.7806 309.0
19.9381 274.0
20.0957 293.0
20.2533 307.0
20.4108 312.0
20.5684 282.0
20.7259 298.0
20.8835 298.0
21.0411 345.0
21.1986 378.0
21.3562 572.0
21.5138 905.0
21.6713 1039.0
21.8289 1106.0
21.9864 1094.0
22.144 1081.0
22.3016 1088.0
22.4591 1000.0
22.6167 829.0
22.7743 459.0
22.9318 329.0
23.0894 305.0
23.247 276.0
23.4045 273.0
23.5621 235.0
23.7196 232.0
23.8772 272.0
24.0348 260.0
24.1923 235.0
24.3499 247.0
24.5075 230.0
24.665 231.0
24.8226 245.0
24.9802 233.0
25.1377 221.0
25.2953 250.0
25.4528 218.0
25.6104 239.0
25.768 246.0
25.9255 213.0
26.0831 213.0
26.2407 207.0
26.3982 206.0
26.5558 176.0
26.7133 190.0
26.8709 181.0
27.0285 173.0
27.186 200.0
27.3436 193.0
27.5012 175.0
27.6587 180.0
27.8163 175.0
27.9739 192.0
28.1314 193.0
28.289 166.0
28.4465 162.0
28.6041 170.0
28.7617 193.0
28.9192 177.0
29.0768 186.0
29.2344 181.0
29.3919 166.0
29.5495 195.0
29.7071 167.0
29.8646 170.0
30.0222 173.0
30.1797 215.0
30.3373 230.0
30.4949 235.0
30.6524 373.0
30.81 436.0
30.9676 477.0
31.1251 500.0
31.2827 544.0
31.4403 580.0
31.5978 557.0
31.7554 556.0
31.9129 555.0
32.0705 502.0
32.2281 431.0
32.3856 277.0
32.5432 165.0
32.7008 163.0
32.8583 132.0
33.0159 165.0
33.1734 141.0
33.331 158.0
33.4886 130.0
33.6461 141.0
33.8037 129.0
33.9613 138.0
34.1188 126.0
34.2764 156.0
34.434 159.0
34.5915 162.0
34.7491 189.0
34.9066 203.0
35.0642 199.0
35.2218 184.0
35.3793 201.0
35.5369 210.0
35.6945 162.0
35.852 185.0
36.0096 181.0
36.1672 151.0
36.3247 135.0
36.4823 119.0
36.6398 124.0
36.7974 127.0
36.955 111.0
37.1125 118.0
37.2701 118.0
37.4277 139.0
37.5852 167.0
37.7428 193.0
37.9004 229.0
38.0579 256.0
38.2155 290.0
38.373 295.0
38.5306 287.0
38.6882 292.0
38.8457 330.0
39.0033 330.0
39.1609 292.0
39.3184 259.0
39.476 280.0
39.6335 240.0
39.7911 172.0
39.9487 134.0
40.1062 117.0
40.2638 106.0
40.4214 103.0
40.5789 100.0
40.7365 98.0
40.8941 110.0
41.0516 98.0
41.2092 114.0
41.3667 101.0
41.5243 97.0
41.6819 103.0
41.8394 93.0
41.997 112.0
42.1546 80.0
42.3121 127.0
42.4697 100.0
42.6273 88.0
42.7848 85.0
42.9424 95.0
43.0999 100.0
43.2575 104.0
43.4151 115.0
43.5726 95.0
43.7302 121.0
43.8878 173.0
44.0453 154.0
44.2029 165.0
44.3604 166.0
44.518 184.0
44.6756 209.0
44.8331 201.0
44.9907 207.0
45.1483 205.0
45.3058 161.0
45.4634 199.0
45.621 189.0
45.7785 167.0
45.9361 173.0
46.0936 148.0
46.2512 142.0
46.4088 122.0
46.5663 116.0
46.7239 114.0
46.8815 107.0
47.039 110.0
47.1966 107.0
47.3542 132.0
47.5117 121.0
47.6693 94.0
47.8268 145.0
47.9844 112.0
48.142 91.0
48.2995 122.0
48.4571 110.0
48.6147 98.0
48.7722 130.0
48.9298 116.0
49.0874 118.0
49.2449 111.0
49.4025 106.0
49.56 132.0
49.7176 144.0
49.8752 131.0
50.0065 142.0