File: Br-Cl_phases/XRD/original/220615_120s_GIXRD.xy
10.0116 371.0
10.1692 370.0
10.3268 382.0
10.4843 364.0
10.6419 341.0
10.7994 351.0
10.957 382.0
11.1146 355.0
11.2721 348.0
11.4297 341.0
11.5873 334.0
11.7448 344.0
11.9024 314.0
12.06 321.0
12.2175 354.0
12.3751 298.0
12.5326 362.0
12.6902 321.0
12.8478 338.0
13.0053 332.0
13.1629 314.0
13.3205 320.0
13.478 269.0
13.6356 244.0
13.7932 290.0
13.9507 288.0
14.1083 268.0
14.2658 301.0
14.4234 281.0
14.581 313.0
14.7385 341.0
14.8961 390.0
15.0537 446.0
15.2112 570.0
15.3688 601.0
15.5263 567.0
15.6839 549.0
15.8415 505.0
15.999 312.0
16.1566 271.0
16.3142 247.0
16.4717 251.0
16.6293 245.0
16.7869 299.0
16.9444 261.0
17.102 309.0
17.2595 243.0
17.4171 265.0
17.5747 273.0
17.7322 292.0
17.8898 284.0
18.0474 292.0
18.2049 279.0
18.3625 263.0
18.5201 283.0
18.6776 309.0
18.8352 249.0
18.9927 254.0
19.1503 267.0
19.3079 320.0
19.4654 276.0
19.623 331.0
19.7806 313.0
19.9381 307.0
20.0957 282.0
20.2533 335.0
20.4108 316.0
20.5684 324.0
20.7259 321.0
20.8835 376.0
21.0411 410.0
21.1986 575.0
21.3562 737.0
21.5138 850.0
21.6713 999.0
21.8289 982.0
21.9864 967.0
22.144 1050.0
22.3016 916.0
22.4591 785.0
22.6167 481.0
22.7743 376.0
22.9318 272.0
23.0894 301.0
23.247 257.0
23.4045 276.0
23.5621 241.0
23.7196 259.0
23.8772 259.0
24.0348 258.0
24.1923 279.0
24.3499 249.0
24.5075 239.0
24.665 244.0
24.8226 246.0
24.9802 234.0
25.1377 251.0
25.2953 230.0
25.4528 220.0
25.6104 238.0
25.768 219.0
25.9255 215.0
26.0831 219.0
26.2407 238.0
26.3982 209.0
26.5558 206.0
26.7133 191.0
26.8709 193.0
27.0285 193.0
27.186 192.0
27.3436 163.0
27.5012 201.0
27.6587 204.0
27.8163 191.0
27.9739 178.0
28.1314 205.0
28.289 199.0
28.4465 208.0
28.6041 168.0
28.7617 202.0
28.9192 202.0
29.0768 188.0
29.2344 211.0
29.3919 208.0
29.5495 201.0
29.7071 205.0
29.8646 219.0
30.0222 211.0
30.1797 314.0
30.3373 349.0
30.4949 407.0
30.6524 483.0
30.81 523.0
30.9676 485.0
31.1251 515.0
31.2827 579.0
31.4403 544.0
31.5978 537.0
31.7554 486.0
31.9129 450.0
32.0705 395.0
32.2281 239.0
32.3856 149.0
32.5432 149.0
32.7008 156.0
32.8583 124.0
33.0159 170.0
33.1734 133.0
33.331 136.0
33.4886 143.0
33.6461 143.0
33.8037 163.0
33.9613 149.0
34.1188 166.0
34.2764 190.0
34.434 192.0
34.5915 208.0
34.7491 186.0
34.9066 181.0
35.0642 182.0
35.2218 189.0
35.3793 207.0
35.5369 191.0
35.6945 196.0
35.852 162.0
36.0096 160.0
36.1672 129.0
36.3247 120.0
36.4823 105.0
36.6398 136.0
36.7974 129.0
36.955 128.0
37.1125 147.0
37.2701 187.0
37.4277 190.0
37.5852 205.0
37.7428 263.0
37.9004 230.0
38.0579 270.0
38.2155 256.0
38.373 303.0
38.5306 280.0
38.6882 288.0
38.8457 275.0
39.0033 264.0
39.1609 279.0
39.3184 248.0
39.476 221.0
39.6335 159.0
39.7911 120.0
39.9487 127.0
40.1062 110.0
40.2638 108.0
40.4214 106.0
40.5789 101.0
40.7365 121.0
40.8941 113.0
41.0516 96.0
41.2092 109.0
41.3667 101.0
41.5243 102.0
41.6819 105.0
41.8394 106.0
41.997 87.0
42.1546 106.0
42.3121 102.0
42.4697 94.0
42.6273 96.0
42.7848 96.0
42.9424 104.0
43.0999 116.0
43.2575 110.0
43.4151 131.0
43.5726 152.0
43.7302 167.0
43.8878 170.0
44.0453 147.0
44.2029 170.0
44.3604 174.0
44.518 223.0
44.6756 183.0
44.8331 200.0
44.9907 206.0
45.1483 159.0
45.3058 206.0
45.4634 197.0
45.621 188.0
45.7785 162.0
45.9361 145.0
46.0936 145.0
46.2512 115.0
46.4088 131.0
46.5663 109.0
46.7239 127.0
46.8815 101.0
47.039 131.0
47.1966 116.0
47.3542 113.0
47.5117 131.0
47.6693 108.0
47.8268 116.0
47.9844 134.0
48.142 120.0
48.2995 120.0
48.4571 102.0
48.6147 112.0
48.7722 130.0
48.9298 106.0
49.0874 113.0
49.2449 134.0
49.4025 121.0
49.56 124.0
49.7176 142.0
49.8752 147.0
50.0065 131.0