File: Br-Cl_phases/XRD/original/220615_180s_GIXRD-u.xy
10.0116 370.0
10.1692 376.0
10.3268 375.0
10.4843 347.0
10.6419 356.0
10.7994 360.0
10.957 365.0
11.1146 368.0
11.2721 340.0
11.4297 355.0
11.5873 305.0
11.7448 337.0
11.9024 328.0
12.06 346.0
12.2175 360.0
12.3751 322.0
12.5326 343.0
12.6902 285.0
12.8478 308.0
13.0053 317.0
13.1629 303.0
13.3205 321.0
13.478 301.0
13.6356 302.0
13.7932 276.0
13.9507 259.0
14.1083 282.0
14.2658 265.0
14.4234 282.0
14.581 307.0
14.7385 332.0
14.8961 404.0
15.0537 510.0
15.2112 589.0
15.3688 621.0
15.5263 638.0
15.6839 608.0
15.8415 553.0
15.999 384.0
16.1566 306.0
16.3142 268.0
16.4717 261.0
16.6293 261.0
16.7869 287.0
16.9444 252.0
17.102 258.0
17.2595 288.0
17.4171 247.0
17.5747 289.0
17.7322 260.0
17.8898 245.0
18.0474 309.0
18.2049 299.0
18.3625 291.0
18.5201 273.0
18.6776 299.0
18.8352 288.0
18.9927 265.0
19.1503 296.0
19.3079 305.0
19.4654 294.0
19.623 343.0
19.7806 302.0
19.9381 287.0
20.0957 298.0
20.2533 317.0
20.4108 279.0
20.5684 319.0
20.7259 350.0
20.8835 327.0
21.0411 419.0
21.1986 616.0
21.3562 852.0
21.5138 884.0
21.6713 988.0
21.8289 937.0
21.9864 975.0
22.144 1060.0
22.3016 1030.0
22.4591 919.0
22.6167 677.0
22.7743 353.0
22.9318 307.0
23.0894 284.0
23.247 268.0
23.4045 275.0
23.5621 286.0
23.7196 267.0
23.8772 257.0
24.0348 228.0
24.1923 286.0
24.3499 236.0
24.5075 230.0
24.665 221.0
24.8226 246.0
24.9802 234.0
25.1377 256.0
25.2953 225.0
25.4528 220.0
25.6104 235.0
25.768 251.0
25.9255 232.0
26.0831 212.0
26.2407 266.0
26.3982 201.0
26.5558 214.0
26.7133 199.0
26.8709 214.0
27.0285 176.0
27.186 192.0
27.3436 201.0
27.5012 192.0
27.6587 166.0
27.8163 196.0
27.9739 190.0
28.1314 191.0
28.289 200.0
28.4465 182.0
28.6041 185.0
28.7617 198.0
28.9192 165.0
29.0768 178.0
29.2344 212.0
29.3919 182.0
29.5495 207.0
29.7071 204.0
29.8646 187.0
30.0222 223.0
30.1797 280.0
30.3373 344.0
30.4949 405.0
30.6524 441.0
30.81 452.0
30.9676 495.0
31.1251 475.0
31.2827 532.0
31.4403 501.0
31.5978 539.0
31.7554 529.0
31.9129 459.0
32.0705 427.0
32.2281 314.0
32.3856 187.0
32.5432 148.0
32.7008 154.0
32.8583 154.0
33.0159 136.0
33.1734 127.0
33.331 121.0
33.4886 143.0
33.6461 148.0
33.8037 139.0
33.9613 153.0
34.1188 191.0
34.2764 170.0
34.434 200.0
34.5915 204.0
34.7491 206.0
34.9066 172.0
35.0642 176.0
35.2218 191.0
35.3793 188.0
35.5369 199.0
35.6945 159.0
35.852 179.0
36.0096 186.0
36.1672 159.0
36.3247 128.0
36.4823 131.0
36.6398 133.0
36.7974 123.0
36.955 121.0
37.1125 120.0
37.2701 189.0
37.4277 186.0
37.5852 214.0
37.7428 247.0
37.9004 279.0
38.0579 262.0
38.2155 270.0
38.373 291.0
38.5306 261.0
38.6882 273.0
38.8457 293.0
39.0033 310.0
39.1609 251.0
39.3184 265.0
39.476 264.0
39.6335 194.0
39.7911 144.0
39.9487 118.0
40.1062 126.0
40.2638 113.0
40.4214 111.0
40.5789 106.0
40.7365 123.0
40.8941 94.0
41.0516 112.0
41.2092 96.0
41.3667 89.0
41.5243 107.0
41.6819 90.0
41.8394 114.0
41.997 94.0
42.1546 106.0
42.3121 92.0
42.4697 97.0
42.6273 102.0
42.7848 93.0
42.9424 124.0
43.0999 124.0
43.2575 122.0
43.4151 149.0
43.5726 142.0
43.7302 134.0
43.8878 167.0
44.0453 166.0
44.2029 169.0
44.3604 168.0
44.518 183.0
44.6756 217.0
44.8331 209.0
44.9907 178.0
45.1483 199.0
45.3058 173.0
45.4634 196.0
45.621 171.0
45.7785 160.0
45.9361 147.0
46.0936 150.0
46.2512 142.0
46.4088 124.0
46.5663 129.0
46.7239 113.0
46.8815 120.0
47.039 121.0
47.1966 115.0
47.3542 122.0
47.5117 109.0
47.6693 95.0
47.8268 111.0
47.9844 122.0
48.142 114.0
48.2995 97.0
48.4571 95.0
48.6147 123.0
48.7722 120.0
48.9298 100.0
49.0874 120.0
49.2449 109.0
49.4025 127.0
49.56 131.0
49.7176 134.0
49.8752 139.0
50.0065 159.0