File: Br-Cl_phases/XRD/original/220615_180s_XRR.xy
0.00750 16545210.0
0.02250 21005490.0
0.03750 21087000.0
0.05250 19517190.0
0.06750 16669125.0
0.08250 13337940.0
0.09750 10580625.0
0.11250 9130275.0
0.12750 8551455.0
0.14250 8583795.0
0.15750 8972865.0
0.17250 9435855.0
0.18750 9963690.0
0.20250 10314645.0
0.21750 10518585.0
0.23250 10754205.0
0.24750 10870365.0
0.26250 10913100.0
0.27750 10879935.0
0.29250 10766415.0
0.30750 10572870.0
0.32250 10286925.0
0.33750 9846210.0
0.35250 9471000.0
0.36750 8826180.0
0.38250 8229870.0
0.39750 7529115.0
0.41250 6748335.0
0.42750 5918880.0
0.44250 4934490.0
0.45750 3923370.0
0.47250 2854995.0
0.48750 1873080.0
0.50250 1011780.0
0.51750 425411.0
0.53250 140996.0
0.54750 51014.0
0.56250 37675.0
0.57750 39490.0
0.59250 39241.0
0.60750 36544.0
0.62250 33648.0
0.63750 30001.0
0.65250 27668.0
0.66750 25407.0
0.68250 23039.0
0.69750 21153.0
0.71250 19557.0
0.72750 17587.0
0.74250 16393.0
0.75750 15354.0
0.77250 14089.0
0.78750 13255.0
0.80250 12226.0
0.81750 11435.0
0.83250 10593.0
0.84750 9611.0
0.86250 9017.0
0.87750 8599.0
0.89250 8013.0
0.90750 7554.0
0.92250 6913.0
0.93750 6614.0
0.95250 6323.0
0.96750 5642.0
0.98250 5504.0
0.99750 5192.0
1.01250 4885.0
1.02750 4618.0
1.04250 4388.0
1.05750 4006.0
1.07250 3902.0
1.08750 3767.0
1.10250 3519.0
1.11750 3369.0
1.13250 3185.0
1.14750 2980.0
1.16250 2892.0
1.17750 2766.0
1.19250 2599.0
1.20750 2447.0
1.22250 2350.0
1.23750 2277.0
1.25250 2171.0
1.26750 2032.0
1.28250 1984.0
1.29750 1884.0
1.31250 1724.0
1.32750 1744.0
1.34250 1639.0
1.35750 1678.0
1.37250 1470.0
1.38750 1414.0
1.40250 1397.0
1.41750 1310.0
1.43250 1302.0
1.44750 1226.0
1.46250 1223.0
1.47750 1078.0
1.49250 1108.0
1.50750 1092.0
1.52250 983.0
1.53750 992.0
1.55250 918.0
1.56750 927.0
1.58250 872.0
1.59750 805.0
1.61250 851.0
1.62750 800.0
1.64250 710.0
1.65750 711.0
1.67250 727.0
1.68750 690.0
1.70250 631.0
1.71750 647.0
1.73250 600.0
1.74750 574.0
1.76250 563.0
1.77750 535.0
1.79250 565.0
1.80750 493.0
1.82250 464.0
1.83750 518.0
1.85250 484.0
1.86750 436.0
1.88250 422.0
1.89750 404.0
1.91250 384.0
1.92750 447.0
1.94250 388.0
1.95750 381.0
1.97250 397.0
1.98750 354.0