File: Br-Cl_phases/XRD/original/Si-reference_GIXRD.xy
10.0116 1263.0
10.1692 1250.0
10.3268 1269.0
10.4843 1262.0
10.6419 1220.0
10.7994 1278.0
10.957 1193.0
11.1146 1255.0
11.2721 1259.0
11.4297 1276.0
11.5873 1229.0
11.7448 1309.0
11.9024 1320.0
12.06 1317.0
12.2175 1293.0
12.3751 1328.0
12.5326 1315.0
12.6902 1276.0
12.8478 1240.0
13.0053 1295.0
13.1629 1338.0
13.3205 1354.0
13.478 1317.0
13.6356 1308.0
13.7932 1348.0
13.9507 1413.0
14.1083 1398.0
14.2658 1415.0
14.4234 1408.0
14.581 1408.0
14.7385 1368.0
14.8961 1395.0
15.0537 1463.0
15.2112 1466.0
15.3688 1445.0
15.5263 1498.0
15.6839 1496.0
15.8415 1537.0
15.999 1532.0
16.1566 1564.0
16.3142 1514.0
16.4717 1636.0
16.6293 1657.0
16.7869 1629.0
16.9444 1712.0
17.102 1785.0
17.2595 1694.0
17.4171 1778.0
17.5747 1756.0
17.7322 1701.0
17.8898 1812.0
18.0474 1734.0
18.2049 1807.0
18.3625 1811.0
18.5201 1920.0
18.6776 1850.0
18.8352 1887.0
18.9927 1928.0
19.1503 1870.0
19.3079 1890.0
19.4654 1869.0
19.623 1925.0
19.7806 1958.0
19.9381 1930.0
20.0957 1953.0
20.2533 1829.0
20.4108 1862.0
20.5684 1907.0
20.7259 1858.0
20.8835 1791.0
21.0411 1805.0
21.1986 1852.0
21.3562 1792.0
21.5138 1730.0
21.6713 1701.0
21.8289 1695.0
21.9864 1610.0
22.144 1616.0
22.3016 1538.0
22.4591 1612.0
22.6167 1474.0
22.7743 1526.0
22.9318 1505.0
23.0894 1525.0
23.247 1462.0
23.4045 1407.0
23.5621 1399.0
23.7196 1372.0
23.8772 1347.0
24.0348 1358.0
24.1923 1270.0
24.3499 1279.0
24.5075 1246.0
24.665 1289.0
24.8226 1209.0
24.9802 1210.0
25.1377 1187.0
25.2953 1154.0
25.4528 1176.0
25.6104 1100.0
25.768 1067.0
25.9255 1138.0
26.0831 1121.0
26.2407 1049.0
26.3982 1063.0
26.5558 1049.0
26.7133 1076.0
26.8709 1116.0
27.0285 1315.0
27.186 2011.0
27.3436 1613.0
27.5012 1663.0
27.6587 1655.0
27.8163 1812.0
27.9739 1828.0
28.1314 2054.0
28.289 2000.0
28.4465 2221.0
28.6041 2257.0
28.7617 3552.0
28.9192 2524.0
29.0768 3746.0
29.2344 1665.0
29.3919 993.0
29.5495 900.0
29.7071 884.0
29.8646 847.0
30.0222 865.0
30.1797 836.0
30.3373 830.0
30.4949 884.0
30.6524 797.0
30.81 822.0
30.9676 850.0
31.1251 825.0
31.2827 796.0
31.4403 814.0
31.5978 761.0
31.7554 854.0
31.9129 809.0
32.0705 731.0
32.2281 778.0
32.3856 780.0
32.5432 758.0
32.7008 780.0
32.8583 789.0
33.0159 797.0
33.1734 784.0
33.331 742.0
33.4886 727.0
33.6461 713.0
33.8037 725.0
33.9613 704.0
34.1188 708.0
34.2764 668.0
34.434 667.0
34.5915 659.0
34.7491 671.0
34.9066 684.0
35.0642 678.0
35.2218 694.0
35.3793 673.0
35.5369 640.0
35.6945 654.0
35.852 649.0
36.0096 626.0
36.1672 653.0
36.3247 663.0
36.4823 628.0
36.6398 639.0
36.7974 643.0
36.955 595.0
37.1125 640.0
37.2701 657.0
37.4277 654.0
37.5852 566.0
37.7428 618.0
37.9004 596.0
38.0579 594.0
38.2155 637.0
38.373 591.0
38.5306 605.0
38.6882 571.0
38.8457 618.0
39.0033 553.0
39.1609 621.0
39.3184 612.0
39.476 610.0
39.6335 574.0
39.7911 612.0
39.9487 582.0
40.1062 591.0
40.2638 563.0
40.4214 582.0
40.5789 621.0
40.7365 591.0
40.8941 586.0
41.0516 543.0
41.2092 610.0
41.3667 610.0
41.5243 515.0
41.6819 553.0
41.8394 587.0
41.997 550.0
42.1546 577.0
42.3121 592.0
42.4697 569.0
42.6273 562.0
42.7848 526.0
42.9424 601.0
43.0999 581.0
43.2575 564.0
43.4151 591.0
43.5726 609.0
43.7302 607.0
43.8878 588.0
44.0453 580.0
44.2029 590.0
44.3604 586.0
44.518 603.0
44.6756 590.0
44.8331 601.0
44.9907 671.0
45.1483 610.0
45.3058 662.0
45.4634 697.0
45.621 735.0
45.7785 778.0
45.9361 767.0
46.0936 760.0
46.2512 863.0
46.4088 884.0
46.5663 834.0
46.7239 961.0
46.8815 1000.0
47.039 866.0
47.1966 1416.0
47.3542 1489.0
47.5117 1177.0
47.6693 1150.0
47.8268 1183.0
47.9844 1217.0
48.142 1225.0
48.2995 1299.0
48.4571 1187.0
48.6147 726.0
48.7722 544.0
48.9298 478.0
49.0874 448.0
49.2449 490.0
49.4025 450.0
49.56 439.0
49.7176 423.0
49.8752 487.0
50.0065 427.0